#GR 700 spectra location on detector. Indecies for ZnS and ZnSe as per Leviton's data (SPIE papers)										
#Code V as-built model for NIRISS			Object at the ''sweet spot": x=-0.0848 deg, y=0.0745deg							
#	m=1	chief ray	m=2	chief ray	m=0		m=3		m=-1	
#wavelength	x	y	x	y	x	y	x	y	x	y
0.75	0	-16.35443	27.58398
0.85	0	-15.76782	27.30114
0.95	0	-15.39197	27.11337
1.05	0	-15.13477	26.98141
1.15	0	-14.9505	26.88469
1.25	0	-14.81397	26.81146
1.35	0	-14.71021	26.75452
1.45	0	-14.6298	26.70928
1.55	0	-14.56655	26.67264
1.65	0	-14.51624	26.64249
1.75	0	-14.47591	26.61732
1.85	0	-14.44343	26.59604
1.95	0	-14.41722	26.57783
2.05	0	-14.39611	26.56209
2.15	0	-14.37921	26.54834
2.25	0	-14.36581	26.53624
2.35	0	-14.35538	26.52547
0.70	1	-17.09128	15.22188 
0.75	1	-16.68159	14.12376 
0.80	1	-16.37403	13.06877 
0.85	1	-16.13736	12.04471 
0.90	1	-15.95189	11.04353 
0.95	1	-15.80457	10.0597	 
1.00	1	-15.68639	9.08925	 
1.05	1	-15.59095	8.12932	 
1.10	1	-15.51356	7.17774	 
1.15	1	-15.45073	6.23288	 
1.20	1	-15.39978	5.29345	 
1.25	1	-15.35866	4.35846	 
1.30	1	-15.32576	3.4271	 
1.35	1	-15.29977	2.49873	 
1.40	1	-15.27967	1.57281	 
1.45	1	-15.26462	0.64892	 
1.50	1	-15.25393	-0.27333 
1.55	1	-15.24702	-1.19423 
1.60	1	-15.24343	-2.11404 
1.65	1	-15.24276	-3.03299 
1.70	1	-15.24467	-3.95128 
1.75	1	-15.24887	-4.86907 
1.80	1	-15.25513	-5.78652 
1.85	1	-15.26324	-6.70377 
1.90	1	-15.27303	-7.62093 
1.95	1	-15.28433	-8.53813 
2.00	1	-15.29703	-9.45547 
2.05	1	-15.311		-10.37305
2.10	1	-15.32614	-11.29097
2.15	1	-15.34238	-12.20932
2.20	1	-15.35965	-13.12821
2.25	1	-15.37786	-14.04772
2.30	1	-15.39699	-14.96796
2.35	1	-15.41697	-15.88902
2.40	1	-15.43778	-16.81101
2.45	1	-15.45938	-17.73405
2.50	1	-15.48175	-18.65823
2.55	1	-15.50487	-19.5837 
2.60	1	-15.52872	-20.51057
0.70	2	-17.412		2.62728	 
0.75	2	-17.02546	0.62197	
0.80	2	-16.74151	-1.34207 
0.85	2	-16.52886	-3.27721 
0.90	2	-16.36781	-5.19165 
0.95	2	-16.24528	-7.09113 
1.00	2	-16.1523	-8.97982 
1.05	2	-16.08249	-10.86087
1.10	2	-16.03121	-12.73677
1.15	2	-15.99502	-14.6096 
1.20	2	-15.97135	-16.48112
1.25	2	-15.95824	-18.35297
1.30	2	-15.9542	-20.22671
1.35	2	-15.95811	-22.10391
1.40	2	-15.96911	-23.98619
1.45	2	-15.98658	-25.87529
1.50	2	-16.01009	-27.7731 
1.55	2	-16.03934	-29.6817 
1.60	2	-16.07418	-31.60338
1.65	2	-16.11457	-33.54068
1.70	2	-16.16055	-35.49639
1.75	2	-16.21225	-37.47358
1.80	2	-16.26986	-39.47557
1.85	2	-16.33364	-41.50598
1.90	2	-16.4039	-43.56865
1.95	2	-16.48096	-45.66768
2.00	2	-16.56518	-47.80735
2.05	2	-16.65695	-49.99209
2.10	2	-16.75662	-52.22645
2.15	2	-16.86455	-54.51498
2.20	2	-16.98108	-56.86222
2.25	2	-17.10648	-59.27255
2.30	2	-17.24099	-61.75014
2.35	2	-17.38477	-64.29885
2.40	2	-17.53791	-66.92208
0.75	3	-17.39233	-12.98973 
0.85	3	-16.95293	-18.77647 
0.95	3	-16.73467	-24.52611 
1.05	3	-16.65056	-30.31091 
1.15	3	-16.66284	-36.20339 
1.25	3	-16.75695	-42.28987 
1.35	3	-16.93045	-48.6749  
1.45	3	-17.18693	-55.47796 
1.55	3	-17.53138	-62.82206 
1.65	3	-17.9661	-70.8149  
1.75	3	-18.48716	-79.52473 
1.85	3	-19.08175	-88.95538 
1.95	3	-19.72697	-99.02598 
2.05	3	-20.39053	-109.56099
2.15	3	-21.03342	-120.29486
2.25	3	-21.61445	-130.89489
2.35	3	-22.09695	-141.00849
0.75	-1      -16.02976	41.03588
0.85	-1     	-15.40134	42.54482
0.95	-1     	-14.98282	44.14752
1.05	-1     	-14.68215	45.80424
1.15	-1     	-14.45359	47.49388
1.25	-1     	-14.27189	49.204
1.35	-1     	-14.12196	50.92661
1.45	-1     	-13.99423	52.65617
1.55	-1     	-13.88237	54.38851
1.65	-1     	-13.78195	56.12024
1.75	-1     	-13.68982	57.84841
1.85	-1     	-13.6036	59.57025
1.95	-1     	-13.52146	61.28306
2.05	-1	-13.44193	62.98408
2.15	-1	-13.36381	64.67041
2.25	-1	-13.28604	66.33895
2.35	-1	-13.20773	67.98638
